#unit extraterrestrial fluxes to obtain atmospheric transmission
200.00  1.00000
200.05  1.00000
200.10  1.00000
200.15  1.00000
200.20  1.00000
200.25  1.00000
200.30  1.00000
200.35  1.00000
200.40  1.00000
200.45  1.00000
200.50  1.00000
200.55  1.00000
200.60  1.00000
200.65  1.00000
200.70  1.00000
200.75  1.00000
200.80  1.00000
200.85  1.00000
200.90  1.00000
200.95  1.00000
201.00  1.00000
201.05  1.00000
201.10  1.00000
201.15  1.00000
201.20  1.00000
201.25  1.00000
201.30  1.00000
201.35  1.00000
201.40  1.00000
201.45  1.00000
201.50  1.00000
201.55  1.00000
201.60  1.00000
201.65  1.00000
201.70  1.00000
201.75  1.00000
201.80  1.00000
201.85  1.00000
201.90  1.00000
201.95  1.00000
202.00  1.00000
202.05  1.00000
202.10  1.00000
202.15  1.00000
202.20  1.00000
202.25  1.00000
202.30  1.00000
202.35  1.00000
202.40  1.00000
202.45  1.00000
202.50  1.00000
202.55  1.00000
202.60  1.00000
202.65  1.00000
202.70  1.00000
202.75  1.00000
202.80  1.00000
202.85  1.00000
202.90  1.00000
202.95  1.00000
203.00  1.00000
203.05  1.00000
203.10  1.00000
203.15  1.00000
203.20  1.00000
203.25  1.00000
203.30  1.00000
203.35  1.00000
203.40  1.00000
203.45  1.00000
203.50  1.00000
203.55  1.00000
203.60  1.00000
203.65  1.00000
203.70  1.00000
203.75  1.00000
203.80  1.00000
203.85  1.00000
203.90  1.00000
203.95  1.00000
204.00  1.00000
204.05  1.00000
204.10  1.00000
204.15  1.00000
204.20  1.00000
204.25  1.00000
204.30  1.00000
204.35  1.00000
204.40  1.00000
204.45  1.00000
204.50  1.00000
204.55  1.00000
204.60  1.00000
204.65  1.00000
204.70  1.00000
204.75  1.00000
204.80  1.00000
204.85  1.00000
204.90  1.00000
204.95  1.00000
205.00  1.00000
205.05  1.00000
205.10  1.00000
205.15  1.00000
205.20  1.00000
205.25  1.00000
205.30  1.00000
205.35  1.00000
205.40  1.00000
205.45  1.00000
205.50  1.00000
205.55  1.00000
205.60  1.00000
205.65  1.00000
205.70  1.00000
205.75  1.00000
205.80  1.00000
205.85  1.00000
205.90  1.00000
205.95  1.00000
206.00  1.00000
206.05  1.00000
206.10  1.00000
206.15  1.00000
206.20  1.00000
206.25  1.00000
206.30  1.00000
206.35  1.00000
206.40  1.00000
206.45  1.00000
206.50  1.00000
206.55  1.00000
206.60  1.00000
206.65  1.00000
206.70  1.00000
206.75  1.00000
206.80  1.00000
206.85  1.00000
206.90  1.00000
206.95  1.00000
207.00  1.00000
207.05  1.00000
207.10  1.00000
207.15  1.00000
207.20  1.00000
207.25  1.00000
207.30  1.00000
207.35  1.00000
207.40  1.00000
207.45  1.00000
207.50  1.00000
207.55  1.00000
207.60  1.00000
207.65  1.00000
207.70  1.00000
207.75  1.00000
207.80  1.00000
207.85  1.00000
207.90  1.00000
207.95  1.00000
208.00  1.00000
208.05  1.00000
208.10  1.00000
208.15  1.00000
208.20  1.00000
208.25  1.00000
208.30  1.00000
208.35  1.00000
208.40  1.00000
208.45  1.00000
208.50  1.00000
208.55  1.00000
208.60  1.00000
208.65  1.00000
208.70  1.00000
208.75  1.00000
208.80  1.00000
208.85  1.00000
208.90  1.00000
208.95  1.00000
209.00  1.00000
209.05  1.00000
209.10  1.00000
209.15  1.00000
209.20  1.00000
209.25  1.00000
209.30  1.00000
209.35  1.00000
209.40  1.00000
209.45  1.00000
209.50  1.00000
209.55  1.00000
209.60  1.00000
209.65  1.00000
209.70  1.00000
209.75  1.00000
209.80  1.00000
209.85  1.00000
209.90  1.00000
209.95  1.00000
210.00  1.00000
210.05  1.00000
210.10  1.00000
210.15  1.00000
210.20  1.00000
210.25  1.00000
210.30  1.00000
210.35  1.00000
210.40  1.00000
210.45  1.00000
210.50  1.00000
210.55  1.00000
210.60  1.00000
210.65  1.00000
210.70  1.00000
210.75  1.00000
210.80  1.00000
210.85  1.00000
210.90  1.00000
210.95  1.00000
211.00  1.00000
211.05  1.00000
211.10  1.00000
211.15  1.00000
211.20  1.00000
211.25  1.00000
211.30  1.00000
211.35  1.00000
211.40  1.00000
211.45  1.00000
211.50  1.00000
211.55  1.00000
211.60  1.00000
211.65  1.00000
211.70  1.00000
211.75  1.00000
211.80  1.00000
211.85  1.00000
211.90  1.00000
211.95  1.00000
212.00  1.00000
212.05  1.00000
212.10  1.00000
212.15  1.00000
212.20  1.00000
212.25  1.00000
212.30  1.00000
212.35  1.00000
212.40  1.00000
212.45  1.00000
212.50  1.00000
212.55  1.00000
212.60  1.00000
212.65  1.00000
212.70  1.00000
212.75  1.00000
212.80  1.00000
212.85  1.00000
212.90  1.00000
212.95  1.00000
213.00  1.00000
213.05  1.00000
213.10  1.00000
213.15  1.00000
213.20  1.00000
213.25  1.00000
213.30  1.00000
213.35  1.00000
213.40  1.00000
213.45  1.00000
213.50  1.00000
213.55  1.00000
213.60  1.00000
213.65  1.00000
213.70  1.00000
213.75  1.00000
213.80  1.00000
213.85  1.00000
213.90  1.00000
213.95  1.00000
214.00  1.00000
214.05  1.00000
214.10  1.00000
214.15  1.00000
214.20  1.00000
214.25  1.00000
214.30  1.00000
214.35  1.00000
214.40  1.00000
214.45  1.00000
214.50  1.00000
214.55  1.00000
214.60  1.00000
214.65  1.00000
214.70  1.00000
214.75  1.00000
214.80  1.00000
214.85  1.00000
214.90  1.00000
214.95  1.00000
215.00  1.00000
215.05  1.00000
215.10  1.00000
215.15  1.00000
215.20  1.00000
215.25  1.00000
215.30  1.00000
215.35  1.00000
215.40  1.00000
215.45  1.00000
215.50  1.00000
215.55  1.00000
215.60  1.00000
215.65  1.00000
215.70  1.00000
215.75  1.00000
215.80  1.00000
215.85  1.00000
215.90  1.00000
215.95  1.00000
216.00  1.00000
216.05  1.00000
216.10  1.00000
216.15  1.00000
216.20  1.00000
216.25  1.00000
216.30  1.00000
216.35  1.00000
216.40  1.00000
216.45  1.00000
216.50  1.00000
216.55  1.00000
216.60  1.00000
216.65  1.00000
216.70  1.00000
216.75  1.00000
216.80  1.00000
216.85  1.00000
216.90  1.00000
216.95  1.00000
217.00  1.00000
217.05  1.00000
217.10  1.00000
217.15  1.00000
217.20  1.00000
217.25  1.00000
217.30  1.00000
217.35  1.00000
217.40  1.00000
217.45  1.00000
217.50  1.00000
217.55  1.00000
217.60  1.00000
217.65  1.00000
217.70  1.00000
217.75  1.00000
217.80  1.00000
217.85  1.00000
217.90  1.00000
217.95  1.00000
218.00  1.00000
218.05  1.00000
218.10  1.00000
218.15  1.00000
218.20  1.00000
218.25  1.00000
218.30  1.00000
218.35  1.00000
218.40  1.00000
218.45  1.00000
218.50  1.00000
218.55  1.00000
218.60  1.00000
218.65  1.00000
218.70  1.00000
218.75  1.00000
218.80  1.00000
218.85  1.00000
218.90  1.00000
218.95  1.00000
219.00  1.00000
219.05  1.00000
219.10  1.00000
219.15  1.00000
219.20  1.00000
219.25  1.00000
219.30  1.00000
219.35  1.00000
219.40  1.00000
219.45  1.00000
219.50  1.00000
219.55  1.00000
219.60  1.00000
219.65  1.00000
219.70  1.00000
219.75  1.00000
219.80  1.00000
219.85  1.00000
219.90  1.00000
219.95  1.00000
220.00  1.00000
220.05  1.00000
220.10  1.00000
220.15  1.00000
220.20  1.00000
220.25  1.00000
220.30  1.00000
220.35  1.00000
220.40  1.00000
220.45  1.00000
220.50  1.00000
220.55  1.00000
220.60  1.00000
220.65  1.00000
220.70  1.00000
220.75  1.00000
220.80  1.00000
220.85  1.00000
220.90  1.00000
220.95  1.00000
221.00  1.00000
221.05  1.00000
221.10  1.00000
221.15  1.00000
221.20  1.00000
221.25  1.00000
221.30  1.00000
221.35  1.00000
221.40  1.00000
221.45  1.00000
221.50  1.00000
221.55  1.00000
221.60  1.00000
221.65  1.00000
221.70  1.00000
221.75  1.00000
221.80  1.00000
221.85  1.00000
221.90  1.00000
221.95  1.00000
222.00  1.00000
222.05  1.00000
222.10  1.00000
222.15  1.00000
222.20  1.00000
222.25  1.00000
222.30  1.00000
222.35  1.00000
222.40  1.00000
222.45  1.00000
222.50  1.00000
222.55  1.00000
222.60  1.00000
222.65  1.00000
222.70  1.00000
222.75  1.00000
222.80  1.00000
222.85  1.00000
222.90  1.00000
222.95  1.00000
223.00  1.00000
223.05  1.00000
223.10  1.00000
223.15  1.00000
223.20  1.00000
223.25  1.00000
223.30  1.00000
223.35  1.00000
223.40  1.00000
223.45  1.00000
223.50  1.00000
223.55  1.00000
223.60  1.00000
223.65  1.00000
223.70  1.00000
223.75  1.00000
223.80  1.00000
223.85  1.00000
223.90  1.00000
223.95  1.00000
224.00  1.00000
224.05  1.00000
224.10  1.00000
224.15  1.00000
224.20  1.00000
224.25  1.00000
224.30  1.00000
224.35  1.00000
224.40  1.00000
224.45  1.00000
224.50  1.00000
224.55  1.00000
224.60  1.00000
224.65  1.00000
224.70  1.00000
224.75  1.00000
224.80  1.00000
224.85  1.00000
224.90  1.00000
224.95  1.00000
225.00  1.00000
225.05  1.00000
225.10  1.00000
225.15  1.00000
225.20  1.00000
225.25  1.00000
225.30  1.00000
225.35  1.00000
225.40  1.00000
225.45  1.00000
225.50  1.00000
225.55  1.00000
225.60  1.00000
225.65  1.00000
225.70  1.00000
225.75  1.00000
225.80  1.00000
225.85  1.00000
225.90  1.00000
225.95  1.00000
226.00  1.00000
226.05  1.00000
226.10  1.00000
226.15  1.00000
226.20  1.00000
226.25  1.00000
226.30  1.00000
226.35  1.00000
226.40  1.00000
226.45  1.00000
226.50  1.00000
226.55  1.00000
226.60  1.00000
226.65  1.00000
226.70  1.00000
226.75  1.00000
226.80  1.00000
226.85  1.00000
226.90  1.00000
226.95  1.00000
227.00  1.00000
227.05  1.00000
227.10  1.00000
227.15  1.00000
227.20  1.00000
227.25  1.00000
227.30  1.00000
227.35  1.00000
227.40  1.00000
227.45  1.00000
227.50  1.00000
227.55  1.00000
227.60  1.00000
227.65  1.00000
227.70  1.00000
227.75  1.00000
227.80  1.00000
227.85  1.00000
227.90  1.00000
227.95  1.00000
228.00  1.00000
228.05  1.00000
228.10  1.00000
228.15  1.00000
228.20  1.00000
228.25  1.00000
228.30  1.00000
228.35  1.00000
228.40  1.00000
228.45  1.00000
228.50  1.00000
228.55  1.00000
228.60  1.00000
228.65  1.00000
228.70  1.00000
228.75  1.00000
228.80  1.00000
228.85  1.00000
228.90  1.00000
228.95  1.00000
229.00  1.00000
229.05  1.00000
229.10  1.00000
229.15  1.00000
229.20  1.00000
229.25  1.00000
229.30  1.00000
229.35  1.00000
229.40  1.00000
229.45  1.00000
229.50  1.00000
229.55  1.00000
229.60  1.00000
229.65  1.00000
229.70  1.00000
229.75  1.00000
229.80  1.00000
229.85  1.00000
229.90  1.00000
229.95  1.00000
230.00  1.00000
230.05  1.00000
230.10  1.00000
230.15  1.00000
230.20  1.00000
230.25  1.00000
230.30  1.00000
230.35  1.00000
230.40  1.00000
230.45  1.00000
230.50  1.00000
230.55  1.00000
230.60  1.00000
230.65  1.00000
230.70  1.00000
230.75  1.00000
230.80  1.00000
230.85  1.00000
230.90  1.00000
230.95  1.00000
231.00  1.00000
231.05  1.00000
231.10  1.00000
231.15  1.00000
231.20  1.00000
231.25  1.00000
231.30  1.00000
231.35  1.00000
231.40  1.00000
231.45  1.00000
231.50  1.00000
231.55  1.00000
231.60  1.00000
231.65  1.00000
231.70  1.00000
231.75  1.00000
231.80  1.00000
231.85  1.00000
231.90  1.00000
231.95  1.00000
232.00  1.00000
232.05  1.00000
232.10  1.00000
232.15  1.00000
232.20  1.00000
232.25  1.00000
232.30  1.00000
232.35  1.00000
232.40  1.00000
232.45  1.00000
232.50  1.00000
232.55  1.00000
232.60  1.00000
232.65  1.00000
232.70  1.00000
232.75  1.00000
232.80  1.00000
232.85  1.00000
232.90  1.00000
232.95  1.00000
233.00  1.00000
233.05  1.00000
233.10  1.00000
233.15  1.00000
233.20  1.00000
233.25  1.00000
233.30  1.00000
233.35  1.00000
233.40  1.00000
233.45  1.00000
233.50  1.00000
233.55  1.00000
233.60  1.00000
233.65  1.00000
233.70  1.00000
233.75  1.00000
233.80  1.00000
233.85  1.00000
233.90  1.00000
233.95  1.00000
234.00  1.00000
234.05  1.00000
234.10  1.00000
234.15  1.00000
234.20  1.00000
234.25  1.00000
234.30  1.00000
234.35  1.00000
234.40  1.00000
234.45  1.00000
234.50  1.00000
234.55  1.00000
234.60  1.00000
234.65  1.00000
234.70  1.00000
234.75  1.00000
234.80  1.00000
234.85  1.00000
234.90  1.00000
234.95  1.00000
235.00  1.00000
235.05  1.00000
235.10  1.00000
235.15  1.00000
235.20  1.00000
235.25  1.00000
235.30  1.00000
235.35  1.00000
235.40  1.00000
235.45  1.00000
235.50  1.00000
235.55  1.00000
235.60  1.00000
235.65  1.00000
235.70  1.00000
235.75  1.00000
235.80  1.00000
235.85  1.00000
235.90  1.00000
235.95  1.00000
236.00  1.00000
236.05  1.00000
236.10  1.00000
236.15  1.00000
236.20  1.00000
236.25  1.00000
236.30  1.00000
236.35  1.00000
236.40  1.00000
236.45  1.00000
236.50  1.00000
236.55  1.00000
236.60  1.00000
236.65  1.00000
236.70  1.00000
236.75  1.00000
236.80  1.00000
236.85  1.00000
236.90  1.00000
236.95  1.00000
237.00  1.00000
237.05  1.00000
237.10  1.00000
237.15  1.00000
237.20  1.00000
237.25  1.00000
237.30  1.00000
237.35  1.00000
237.40  1.00000
237.45  1.00000
237.50  1.00000
237.55  1.00000
237.60  1.00000
237.65  1.00000
237.70  1.00000
237.75  1.00000
237.80  1.00000
237.85  1.00000
237.90  1.00000
237.95  1.00000
238.00  1.00000
238.05  1.00000
238.10  1.00000
238.15  1.00000
238.20  1.00000
238.25  1.00000
238.30  1.00000
238.35  1.00000
238.40  1.00000
238.45  1.00000
238.50  1.00000
238.55  1.00000
238.60  1.00000
238.65  1.00000
238.70  1.00000
238.75  1.00000
238.80  1.00000
238.85  1.00000
238.90  1.00000
238.95  1.00000
239.00  1.00000
239.05  1.00000
239.10  1.00000
239.15  1.00000
239.20  1.00000
239.25  1.00000
239.30  1.00000
239.35  1.00000
239.40  1.00000
239.45  1.00000
239.50  1.00000
239.55  1.00000
239.60  1.00000
239.65  1.00000
239.70  1.00000
239.75  1.00000
239.80  1.00000
239.85  1.00000
239.90  1.00000
239.95  1.00000
240.00  1.00000
240.05  1.00000
240.10  1.00000
240.15  1.00000
240.20  1.00000
240.25  1.00000
240.30  1.00000
240.35  1.00000
240.40  1.00000
240.45  1.00000
240.50  1.00000
240.55  1.00000
240.60  1.00000
240.65  1.00000
240.70  1.00000
240.75  1.00000
240.80  1.00000
240.85  1.00000
240.90  1.00000
240.95  1.00000
241.00  1.00000
241.05  1.00000
241.10  1.00000
241.15  1.00000
241.20  1.00000
241.25  1.00000
241.30  1.00000
241.35  1.00000
241.40  1.00000
241.45  1.00000
241.50  1.00000
241.55  1.00000
241.60  1.00000
241.65  1.00000
241.70  1.00000
241.75  1.00000
241.80  1.00000
241.85  1.00000
241.90  1.00000
241.95  1.00000
242.00  1.00000
242.05  1.00000
242.10  1.00000
242.15  1.00000
242.20  1.00000
242.25  1.00000
242.30  1.00000
242.35  1.00000
242.40  1.00000
242.45  1.00000
242.50  1.00000
242.55  1.00000
242.60  1.00000
242.65  1.00000
242.70  1.00000
242.75  1.00000
242.80  1.00000
242.85  1.00000
242.90  1.00000
242.95  1.00000
243.00  1.00000
243.05  1.00000
243.10  1.00000
243.15  1.00000
243.20  1.00000
243.25  1.00000
243.30  1.00000
243.35  1.00000
243.40  1.00000
243.45  1.00000
243.50  1.00000
243.55  1.00000
243.60  1.00000
243.65  1.00000
243.70  1.00000
243.75  1.00000
243.80  1.00000
243.85  1.00000
243.90  1.00000
243.95  1.00000
244.00  1.00000
244.05  1.00000
244.10  1.00000
244.15  1.00000
244.20  1.00000
244.25  1.00000
244.30  1.00000
244.35  1.00000
244.40  1.00000
244.45  1.00000
244.50  1.00000
244.55  1.00000
244.60  1.00000
244.65  1.00000
244.70  1.00000
244.75  1.00000
244.80  1.00000
244.85  1.00000
244.90  1.00000
244.95  1.00000
245.00  1.00000
245.05  1.00000
245.10  1.00000
245.15  1.00000
245.20  1.00000
245.25  1.00000
245.30  1.00000
245.35  1.00000
245.40  1.00000
245.45  1.00000
245.50  1.00000
245.55  1.00000
245.60  1.00000
245.65  1.00000
245.70  1.00000
245.75  1.00000
245.80  1.00000
245.85  1.00000
245.90  1.00000
245.95  1.00000
246.00  1.00000
246.05  1.00000
246.10  1.00000
246.15  1.00000
246.20  1.00000
246.25  1.00000
246.30  1.00000
246.35  1.00000
246.40  1.00000
246.45  1.00000
246.50  1.00000
246.55  1.00000
246.60  1.00000
246.65  1.00000
246.70  1.00000
246.75  1.00000
246.80  1.00000
246.85  1.00000
246.90  1.00000
246.95  1.00000
247.00  1.00000
247.05  1.00000
247.10  1.00000
247.15  1.00000
247.20  1.00000
247.25  1.00000
247.30  1.00000
247.35  1.00000
247.40  1.00000
247.45  1.00000
247.50  1.00000
247.55  1.00000
247.60  1.00000
247.65  1.00000
247.70  1.00000
247.75  1.00000
247.80  1.00000
247.85  1.00000
247.90  1.00000
247.95  1.00000
248.00  1.00000
248.05  1.00000
248.10  1.00000
248.15  1.00000
248.20  1.00000
248.25  1.00000
248.30  1.00000
248.35  1.00000
248.40  1.00000
248.45  1.00000
248.50  1.00000
248.55  1.00000
248.60  1.00000
248.65  1.00000
248.70  1.00000
248.75  1.00000
248.80  1.00000
248.85  1.00000
248.90  1.00000
248.95  1.00000
249.00  1.00000
249.05  1.00000
249.10  1.00000
249.15  1.00000
249.20  1.00000
249.25  1.00000
249.30  1.00000
249.35  1.00000
249.40  1.00000
249.45  1.00000
249.50  1.00000
249.55  1.00000
249.60  1.00000
249.65  1.00000
249.70  1.00000
249.75  1.00000
249.80  1.00000
249.85  1.00000
249.90  1.00000
249.95  1.00000
250.00  1.00000
250.05  1.00000
250.10  1.00000
250.15  1.00000
250.20  1.00000
250.25  1.00000
250.30  1.00000
250.35  1.00000
250.40  1.00000
250.45  1.00000
250.50  1.00000
250.55  1.00000
250.60  1.00000
250.65  1.00000
250.70  1.00000
250.75  1.00000
250.80  1.00000
250.85  1.00000
250.90  1.00000
250.95  1.00000
251.00  1.00000
251.05  1.00000
251.10  1.00000
251.15  1.00000
251.20  1.00000
251.25  1.00000
251.30  1.00000
251.35  1.00000
251.40  1.00000
251.45  1.00000
251.50  1.00000
251.55  1.00000
251.60  1.00000
251.65  1.00000
251.70  1.00000
251.75  1.00000
251.80  1.00000
251.85  1.00000
251.90  1.00000
251.95  1.00000
252.00  1.00000
252.05  1.00000
252.10  1.00000
252.15  1.00000
252.20  1.00000
252.25  1.00000
252.30  1.00000
252.35  1.00000
252.40  1.00000
252.45  1.00000
252.50  1.00000
252.55  1.00000
252.60  1.00000
252.65  1.00000
252.70  1.00000
252.75  1.00000
252.80  1.00000
252.85  1.00000
252.90  1.00000
252.95  1.00000
253.00  1.00000
253.05  1.00000
253.10  1.00000
253.15  1.00000
253.20  1.00000
253.25  1.00000
253.30  1.00000
253.35  1.00000
253.40  1.00000
253.45  1.00000
253.50  1.00000
253.55  1.00000
253.60  1.00000
253.65  1.00000
253.70  1.00000
253.75  1.00000
253.80  1.00000
253.85  1.00000
253.90  1.00000
253.95  1.00000
254.00  1.00000
254.05  1.00000
254.10  1.00000
254.15  1.00000
254.20  1.00000
254.25  1.00000
254.30  1.00000
254.35  1.00000
254.40  1.00000
254.45  1.00000
254.50  1.00000
254.55  1.00000
254.60  1.00000
254.65  1.00000
254.70  1.00000
254.75  1.00000
254.80  1.00000
254.85  1.00000
254.90  1.00000
254.95  1.00000
255.00  1.00000
255.05  1.00000
255.10  1.00000
255.15  1.00000
255.20  1.00000
255.25  1.00000
255.30  1.00000
255.35  1.00000
255.40  1.00000
255.45  1.00000
255.50  1.00000
255.55  1.00000
255.60  1.00000
255.65  1.00000
255.70  1.00000
255.75  1.00000
255.80  1.00000
255.85  1.00000
255.90  1.00000
255.95  1.00000
256.00  1.00000
256.05  1.00000
256.10  1.00000
256.15  1.00000
256.20  1.00000
256.25  1.00000
256.30  1.00000
256.35  1.00000
256.40  1.00000
256.45  1.00000
256.50  1.00000
256.55  1.00000
256.60  1.00000
256.65  1.00000
256.70  1.00000
256.75  1.00000
256.80  1.00000
256.85  1.00000
256.90  1.00000
256.95  1.00000
257.00  1.00000
257.05  1.00000
257.10  1.00000
257.15  1.00000
257.20  1.00000
257.25  1.00000
257.30  1.00000
257.35  1.00000
257.40  1.00000
257.45  1.00000
257.50  1.00000
257.55  1.00000
257.60  1.00000
257.65  1.00000
257.70  1.00000
257.75  1.00000
257.80  1.00000
257.85  1.00000
257.90  1.00000
257.95  1.00000
258.00  1.00000
258.05  1.00000
258.10  1.00000
258.15  1.00000
258.20  1.00000
258.25  1.00000
258.30  1.00000
258.35  1.00000
258.40  1.00000
258.45  1.00000
258.50  1.00000
258.55  1.00000
258.60  1.00000
258.65  1.00000
258.70  1.00000
258.75  1.00000
258.80  1.00000
258.85  1.00000
258.90  1.00000
258.95  1.00000
259.00  1.00000
259.05  1.00000
259.10  1.00000
259.15  1.00000
259.20  1.00000
259.25  1.00000
259.30  1.00000
259.35  1.00000
259.40  1.00000
259.45  1.00000
259.50  1.00000
259.55  1.00000
259.60  1.00000
259.65  1.00000
259.70  1.00000
259.75  1.00000
259.80  1.00000
259.85  1.00000
259.90  1.00000
259.95  1.00000
260.00  1.00000
260.05  1.00000
260.10  1.00000
260.15  1.00000
260.20  1.00000
260.25  1.00000
260.30  1.00000
260.35  1.00000
260.40  1.00000
260.45  1.00000
260.50  1.00000
260.55  1.00000
260.60  1.00000
260.65  1.00000
260.70  1.00000
260.75  1.00000
260.80  1.00000
260.85  1.00000
260.90  1.00000
260.95  1.00000
261.00  1.00000
261.05  1.00000
261.10  1.00000
261.15  1.00000
261.20  1.00000
261.25  1.00000
261.30  1.00000
261.35  1.00000
261.40  1.00000
261.45  1.00000
261.50  1.00000
261.55  1.00000
261.60  1.00000
261.65  1.00000
261.70  1.00000
261.75  1.00000
261.80  1.00000
261.85  1.00000
261.90  1.00000
261.95  1.00000
262.00  1.00000
262.05  1.00000
262.10  1.00000
262.15  1.00000
262.20  1.00000
